event,channel,n_epochs,peak_amplitude_uv,peak_latency_ms,mean_amplitude_0_800ms_uv
S_1,Fp1,6,-7.511763242683935,338.0,-2.0366147052113788
S_1,F3,6,-7.158175044200818,331.0,-0.9186305856758709
S_1,F7,6,-12.327132405316645,232.0,-2.774541023745333
S_1,FT9,6,-6.644222562644362,375.0,-0.5603336721661305
S_1,FC5,6,-7.384443205749355,330.0,-0.8794994224347151
S_1,FC1,6,-6.084784919742048,409.0,-0.8025798599520076
S_1,C3,6,-5.922286211660713,411.0,-0.5441714619405033
S_1,T7,6,-10.218678361448445,368.0,-1.3434351867056173
S_1,TP9,6,6.793500254411507,134.0,-0.4975033952277075
S_1,CP5,6,5.40457649013619,119.0,0.25736853021244194
S_1,CP1,6,-5.942167134154851,414.0,-0.2760476805028212
S_1,Pz,6,7.398670963966274,356.0,0.906563911769992
S_1,P3,6,7.658803310719466,155.0,1.9729946259532327
S_1,P7,6,9.016939498668041,130.0,1.574676149199796
S_1,O1,6,9.118963296945065,272.0,1.5500327941875385
S_1,Oz,6,8.73602791667278,380.0,1.3335317749163953
S_1,O2,6,12.499155839495453,146.0,1.4606648422854869
S_1,P4,6,6.9091577638913,337.0,0.07096060904525357
S_1,P8,6,8.331383475228545,699.0,-0.26367197717217167
S_1,TP10,6,-8.89858488808521,33.0,-0.7720546009954822
S_1,CP6,6,7.512101030112339,411.0,-0.2859480238128361
S_1,CP2,6,-5.981530690563109,447.0,-0.6584380565555917
S_1,Cz,6,-7.224197213913155,431.0,-0.9145753501286705
S_1,C4,6,-4.604651741005615,648.0,-0.35771638030527064
S_1,T8,6,-7.155997937970946,637.0,-0.406374219664292
S_1,FT10,6,11.159492455367417,412.0,0.7838794526640929
S_1,FC6,6,6.430350521636117,411.0,0.19211353078691673
S_1,FC2,6,-4.742479584879631,262.0,-0.2261131397802722
S_1,F4,6,7.0816780380128295,450.0,1.151836023975161
S_1,F8,6,12.251607291343339,411.0,2.472966924028443
S_1,Fp2,6,10.269904461635281,449.0,0.7906595729519185
S_2,Fp1,8,14.269998622093768,535.0,-3.157807748528525
S_2,F3,8,-7.039388360207138,284.0,-1.1543598509690294
S_2,F7,8,-10.94900525230796,284.0,-2.8737952819269763
S_2,FT9,8,-6.776453790959862,543.0,-1.2713269628857486
S_2,FC5,8,-4.660983427716829,283.0,-0.5850347268907775
S_2,FC1,8,-4.978598405876939,291.0,-1.0754239187428207
S_2,C3,8,-3.829940130523708,127.0,-0.6271150304431401
S_2,T7,8,6.785797477316787,637.0,0.23797813824125702
S_2,TP9,8,-6.20297217838151,541.0,0.016515106663724303
S_2,CP5,8,-4.9885695480906955,501.0,-0.12069601230667515
S_2,CP1,8,-4.2738777489789275,122.0,-0.7762898182978464
S_2,Pz,8,6.015721979111119,308.0,0.2635337150826419
S_2,P3,8,5.979240023161201,654.0,-0.14754609858870812
S_2,P7,8,6.555897162436289,125.0,1.0518843708605647
S_2,O1,8,8.74728871757889,384.0,1.6037473397423736
S_2,Oz,8,6.26141827330781,89.0,1.1477477863014898
S_2,O2,8,7.663138496037925,251.0,1.6080653883315488
S_2,P4,8,4.1781853035141,295.0,-0.1709978175764124
S_2,P8,8,6.944768674319184,791.0,0.7219163844019222
S_2,TP10,8,11.294122835424778,791.0,1.7692662459032422
S_2,CP6,8,4.667859687381525,364.0,0.04686054297385763
S_2,CP2,8,-4.6611679173887435,381.0,-1.086708730131134
S_2,Cz,8,-5.5719241254270715,382.0,-0.5797154718151454
S_2,C4,8,5.324344205831269,739.0,0.30218607397491515
S_2,T8,8,7.814585881249813,46.0,1.7765067928554978
S_2,FT10,8,8.80069660284288,380.0,2.3820284526530715
S_2,FC6,8,7.128587920976707,323.0,1.030328690648564
S_2,FC2,8,4.844228193232371,734.0,-0.6250307508932996
S_2,F4,8,7.16845171595212,534.0,-0.21554102612664952
S_2,F8,8,10.079816054404997,507.0,1.9578161986786735
S_2,Fp2,8,23.660406514481338,534.0,-1.4489919811904575
S_3,Fp1,8,-9.75857596888713,455.0,-1.7494753356992598
S_3,F3,8,-8.889777506741884,251.0,-2.5011196691265636
S_3,F7,8,-11.728280766719278,220.0,-3.787564507159304
S_3,FT9,8,-7.309787899731854,466.0,-1.075955127876626
S_3,FC5,8,-7.039804500404873,248.0,-2.3386417720547508
S_3,FC1,8,-5.504859090982957,294.0,-1.5419593774333733
S_3,C3,8,-4.028506046752075,297.0,-0.47907370414019895
S_3,T7,8,-6.315785557731872,488.0,-0.7618181047579686
S_3,TP9,8,6.712634851033135,92.0,1.2017148904402568
S_3,CP5,8,-4.077650263137138,494.0,0.03564605066292525
S_3,CP1,8,-4.275380228335762,126.0,0.1399282248612916
S_3,Pz,8,-6.938290831863441,112.0,-0.49678874489613545
S_3,P3,8,-6.045490111155308,289.0,-0.5182073129402944
S_3,P7,8,7.5798732254986305,728.0,1.872429850020943
S_3,O1,8,10.582416795307175,731.0,2.631220698621848
S_3,Oz,8,8.850207651414452,263.0,2.3614524800809376
S_3,O2,8,9.868123764068272,310.0,1.1442734747318617
S_3,P4,8,5.866137133053603,333.0,0.8585969731530382
S_3,P8,8,6.787988646872945,127.0,1.2858311464739167
S_3,TP10,8,10.056793516173585,744.0,1.4587075735950712
S_3,CP6,8,-4.910339516012007,105.0,-0.30062845052863024
S_3,CP2,8,6.425530259732942,198.0,0.5447920195355914
S_3,Cz,8,4.562948943327244,200.0,-0.2301427608578175
S_3,C4,8,6.443354042134868,202.0,0.1296925365938809
S_3,T8,8,-6.005058015695518,435.0,-0.2964710508099347
S_3,FT10,8,-7.084905067310301,705.0,-0.03436188851379227
S_3,FC6,8,7.502529393707476,399.0,1.1045481484462776
S_3,FC2,8,6.048800456787674,200.0,0.285044249779515
S_3,F4,8,5.806207945629284,404.0,-0.19051300596788232
S_3,F8,8,8.405827603508483,495.0,0.6026833488818615
S_3,Fp2,8,11.638258997093816,800.0,0.6461591468833137
S_4,Fp1,8,10.927588890453713,562.0,1.2411988496520796
S_4,F3,8,-7.692124815048247,302.0,-0.5125355427843129
S_4,F7,8,8.175006969171777,51.0,0.6667557311528811
S_4,FT9,8,5.0436233983039465,53.0,0.47633350680715975
S_4,FC5,8,-7.770637293494064,301.0,-0.9837208747357742
S_4,FC1,8,-5.662398537102324,300.0,0.04305396246696637
S_4,C3,8,-6.3862684302493555,296.0,-0.6797409834707528
S_4,T7,8,-5.578580043300783,531.0,-0.26714651610489953
S_4,TP9,8,7.148347197417108,800.0,-0.05773680901051191
S_4,CP5,8,-6.071078967149662,251.0,-0.5151193917182177
S_4,CP1,8,-5.4700282698539935,290.0,-0.4366365043192461
S_4,Pz,8,-4.3747672566101645,800.0,-0.1302948746085613
S_4,P3,8,-4.734555784277954,471.0,0.8081588782229426
S_4,P7,8,7.471468426537039,125.0,0.9349990617668436
S_4,O1,8,12.195536182306387,129.0,2.6140963220430877
S_4,Oz,8,9.460840169194748,299.0,2.210256852691608
S_4,O2,8,11.609809605826477,303.0,0.5234488223619884
S_4,P4,8,-5.531129075520078,52.0,-0.46552615741219483
S_4,P8,8,8.263295282011981,305.0,0.6790192014724027
S_4,TP10,8,-10.116163225896146,167.0,-0.29141284784473087
S_4,CP6,8,-5.450320595453998,52.0,-0.6575785157605516
S_4,CP2,8,-3.750519303077851,464.0,-1.0142455031066946
S_4,Cz,8,-6.842818333487487,293.0,-1.1953207676282485
S_4,C4,8,-4.635697168432217,20.0,-0.8910729029937989
S_4,T8,8,7.924105734044342,408.0,-0.4042373522528557
S_4,FT10,8,-6.847882932223907,158.0,-0.7118982803762498
S_4,FC6,8,-6.427954337265707,130.0,-1.4600682276811536
S_4,FC2,8,-5.328643594294031,269.0,-1.1704236005555457
S_4,F4,8,-6.326186026178632,796.0,-0.10657270077084585
S_4,F8,8,-7.3544253267161075,799.0,-0.22235264058090753
S_4,Fp2,8,16.626120948501374,533.0,1.9763198050780932
S_5,Fp1,7,12.557600041303163,0.0,1.851284957265108
S_5,F3,7,-7.927823327346887,347.0,-0.6686304953305988
S_5,F7,7,-11.295487436694922,388.0,-2.1130003853922057
S_5,FT9,7,-8.996944358017288,571.0,-1.91429497884302
S_5,FC5,7,-5.671908669422021,347.0,-0.9701302634043015
S_5,FC1,7,-7.980255666049973,347.0,-1.051850594330205
S_5,C3,7,-4.723419609133829,267.0,-0.4427758483520098
S_5,T7,7,-5.956233199435715,540.0,-0.6530247618388001
S_5,TP9,7,5.155557334420265,654.0,-0.23692482117158895
S_5,CP5,7,-3.7332055781141125,283.0,-0.03827675062707852
S_5,CP1,7,-4.7051414879059354,272.0,-0.1421249755000565
S_5,Pz,7,6.193543279432,571.0,0.5686296744318696
S_5,P3,7,8.054901185212803,314.0,1.463809433397234
S_5,P7,7,8.456132337521485,315.0,2.051467923437751
S_5,O1,7,11.625549736938435,126.0,2.9854961906138535
S_5,Oz,7,10.148754656800199,257.0,2.015273722042899
S_5,O2,7,13.664906790169114,258.0,1.96780826702467
S_5,P4,7,7.581108242133287,349.0,0.5942320087039903
S_5,P8,7,7.624183335525515,267.0,0.8879461862213469
S_5,TP10,7,-8.133323305365172,12.0,-1.209907343539841
S_5,CP6,7,-5.658767527924066,612.0,-1.2230907456079818
S_5,CP2,7,3.698820435206142,531.0,-0.31069149630841464
S_5,Cz,7,-5.680598711552822,270.0,-1.2334347760787097
S_5,C4,7,-5.6944907088949135,371.0,-1.1700172005981075
S_5,T8,7,-6.097205329548938,134.0,-1.1196465518495655
S_5,FT10,7,-9.88268435904629,151.0,-1.0884392539764938
S_5,FC6,7,-6.489409188412598,154.0,-1.0813894378065165
S_5,FC2,7,-5.372708942441206,375.0,-1.0556138889087106
S_5,F4,7,-4.045296166618638,54.0,-0.1477125884357183
S_5,F8,7,7.858871227317706,552.0,0.16316557374813584
S_5,Fp2,7,11.341100263519301,0.0,3.3218632210130656
S_6,Fp1,7,10.242444171283884,589.0,0.4798161558389524
S_6,F3,7,-7.82309389515385,334.0,-1.176071534875252
S_6,F7,7,-8.052109973333206,516.0,-0.5525754549674842
S_6,FT9,7,-8.263892711924067,514.0,-0.5485177479476198
S_6,FC5,7,-5.911101819723048,285.0,-1.3857402908348806
S_6,FC1,7,-8.028136724465595,109.0,-1.748528558364445
S_6,C3,7,4.418361407881377,164.0,-0.6470688012129987
S_6,T7,7,-6.202421071005319,525.0,-0.35018586367449345
S_6,TP9,7,8.938096526474208,134.0,0.9299066163173577
S_6,CP5,7,4.565275882378883,192.0,0.3392380204447706
S_6,CP1,7,-8.346919711882057,129.0,-1.3376712696723505
S_6,Pz,7,-7.275272870074667,74.0,-0.464285981096144
S_6,P3,7,5.904954979369361,99.0,1.1752791591615295
S_6,P7,7,8.836550293997233,131.0,1.332464561551595
S_6,O1,7,14.259431733977854,136.0,3.5070898866265714
S_6,Oz,7,11.45741692091666,102.0,2.860577169756498
S_6,O2,7,13.273892554800344,263.0,2.2846922385146784
S_6,P4,7,5.5152628803628785,332.0,0.15782689234528255
S_6,P8,7,-6.959758566399044,166.0,0.27743692183923785
S_6,TP10,7,8.093117928208658,77.0,0.5438470779413824
S_6,CP6,7,-4.531467024362721,774.0,-0.7105269191503926
S_6,CP2,7,-7.257035059581209,126.0,-1.438580753559826
S_6,Cz,7,-8.711279325725021,129.0,-1.8526735646394794
S_6,C4,7,-5.894889506476242,92.0,-0.7580996199711565
S_6,T8,7,-9.122271457755723,167.0,-1.7471595728543494
S_6,FT10,7,-7.66158564143668,157.0,0.07887739980625984
S_6,FC6,7,-5.391973329333344,94.0,-0.5441239050986627
S_6,FC2,7,-6.992017115447983,130.0,-1.4191553536984634
S_6,F4,7,5.997305292849431,482.0,0.16800816715165293
S_6,F8,7,-6.833267696686124,150.0,0.3149918017036569
S_6,Fp2,7,-10.913227484789909,707.0,2.230913122618573
S_7,Fp1,7,9.692804116213367,159.0,3.3162710076321047
S_7,F3,7,-6.239783024123787,369.0,0.038452009840634946
S_7,F7,7,5.119795305919721,120.0,0.9865996548419143
S_7,FT9,7,5.695359715196967,519.0,0.47788983482216757
S_7,FC5,7,-3.8162358921000052,369.0,0.37374709717656474
S_7,FC1,7,-5.788312968056215,372.0,-0.9084916356572916
S_7,C3,7,-3.9263633843811543,260.0,-0.5162026825263374
S_7,T7,7,7.137242876434047,517.0,0.04401039902820382
S_7,TP9,7,8.26282692676502,90.0,1.4453134698414414
S_7,CP5,7,-5.303599555017071,799.0,0.1162433170277917
S_7,CP1,7,-5.336983419424798,122.0,-1.0348291124541267
S_7,Pz,7,-5.289574475922624,122.0,-1.1063264442195517
S_7,P3,7,5.652660305671555,244.0,0.35652868564863377
S_7,P7,7,6.402260176699469,460.0,0.9283916608717484
S_7,O1,7,11.024711732797712,98.0,1.8815222643527414
S_7,Oz,7,12.138287416021965,102.0,1.3675384363852212
S_7,O2,7,14.569133884792668,267.0,1.290264051362037
S_7,P4,7,-5.433712880411314,54.0,-0.9183343205259884
S_7,P8,7,6.673150966119797,252.0,0.6820670912157561
S_7,TP10,7,9.433895986374054,83.0,-0.49221082113265235
S_7,CP6,7,-4.792032778575532,522.0,-0.8572870201387652
S_7,CP2,7,-4.28686281776321,122.0,-0.9439608290969441
S_7,Cz,7,-7.744070534993383,297.0,-1.9796366231509845
S_7,C4,7,-7.06952811840413,311.0,-1.2515350623027788
S_7,T8,7,-9.737273518592763,155.0,-1.2153187838220993
S_7,FT10,7,-7.6814910480246565,166.0,-0.1648070228260884
S_7,FC6,7,-5.098280295357956,92.0,-0.7886472721492964
S_7,FC2,7,-6.816967114376256,93.0,-1.9156159186303385
S_7,F4,7,5.876086548482143,799.0,-0.8937338397946848
S_7,F8,7,-8.876150516787483,167.0,-0.9833407211998355
S_7,Fp2,7,10.029278909295646,800.0,2.6654391295808004
S_8,Fp1,7,13.530520409754159,566.0,-0.19952506649011723
S_8,F3,7,-5.794521280377138,794.0,-1.1271699522528338
S_8,F7,7,-6.3031641856951435,442.0,-0.9917509279254565
S_8,FT9,7,-7.513560278677719,589.0,-0.6217528790437461
S_8,FC5,7,-5.5396750550241665,112.0,-1.1472623781192994
S_8,FC1,7,-4.483642963810399,532.0,-0.5738689519445399
S_8,C3,7,-5.223186472753826,114.0,-0.993792176885219
S_8,T7,7,-8.651400661236057,656.0,-0.3817919188149903
S_8,TP9,7,8.006135917156058,795.0,-0.016421777037200117
S_8,CP5,7,5.6595642292450545,171.0,1.2883151973468654
S_8,CP1,7,-4.849221039912717,135.0,-0.4691128215720706
S_8,Pz,7,-5.19745691385901,375.0,-0.9087200764743469
S_8,P3,7,-6.501956160692895,568.0,-0.24312873832153042
S_8,P7,7,8.59075722731954,111.0,0.9070845615859129
S_8,O1,7,11.092388364061524,135.0,1.596225081596112
S_8,Oz,7,10.773791195342039,250.0,1.942823108045558
S_8,O2,7,15.296756521785163,249.0,1.9333588685222094
S_8,P4,7,-4.204881919540323,0.0,0.5556096547997469
S_8,P8,7,8.953750068817724,137.0,1.664291814101638
S_8,TP10,7,9.210118544906909,71.0,1.5058622793578909
S_8,CP6,7,5.337797090784482,74.0,0.9410479550032239
S_8,CP2,7,-5.927175148396575,104.0,-1.2998931932222106
S_8,Cz,7,-6.950167313215708,132.0,-2.1755841673490224
S_8,C4,7,-6.991499296489639,94.0,-1.1367610554801713
S_8,T8,7,8.963257752325251,15.0,0.46709771369033165
S_8,FT10,7,4.702979360057858,402.0,0.25104766452961724
S_8,FC6,7,-6.405765403585485,141.0,0.04682943358553483
S_8,FC2,7,-5.762171529923531,136.0,-1.231166869461485
S_8,F4,7,-7.393162028616904,776.0,0.11214079605935687
S_8,F8,7,10.892486388585956,574.0,0.15494469688362186
S_8,Fp2,7,19.282581489131683,569.0,0.15102412528661877
S_9,Fp1,4,-11.339785032675438,255.0,-0.6092185985310169
S_9,F3,4,-12.025478820554403,336.0,-2.1879265268993024
S_9,F7,4,-14.543342681161624,470.0,-3.115671740073
S_9,FT9,4,-15.959484201457203,519.0,-3.2111576542354645
S_9,FC5,4,-11.911087926717174,337.0,-3.260939131271969
S_9,FC1,4,-10.244441897140465,335.0,-2.703060066976862
S_9,C3,4,-7.883729005131301,256.0,-2.086659251396493
S_9,T7,4,-14.97420361429798,517.0,-2.4635259592136336
S_9,TP9,4,-11.311544574244458,518.0,-1.4612956137601243
S_9,CP5,4,-7.549971337316661,523.0,-1.4603366009566983
S_9,CP1,4,-7.345975229747968,124.0,-1.9886759756305068
S_9,Pz,4,-8.450632854263553,56.0,-2.0103895210181775
S_9,P3,4,-7.8588736045121035,504.0,-1.0524969043719303
S_9,P7,4,-10.491568747043223,50.0,-0.7698688287018093
S_9,O1,4,-9.992529603265854,55.0,-0.5872402286156818
S_9,Oz,4,-11.242785634525797,13.0,-0.33752479516852746
S_9,O2,4,-15.40189488862012,14.0,-0.060139024648297866
S_9,P4,4,7.299069106262253,340.0,-0.46389555868647686
S_9,P8,4,9.111257675937944,294.0,0.9942031087598037
S_9,TP10,4,12.343330801738956,125.0,2.233964846770922
S_9,CP6,4,7.150680110458847,257.0,1.517328580376765
S_9,CP2,4,-6.829142325163029,451.0,-1.1629816376344004
S_9,Cz,4,-7.2297088229270665,127.0,-2.041588486106952
S_9,C4,4,9.881059813863537,213.0,1.7571756838677586
S_9,T8,4,9.701251409526918,247.0,1.674476813367213
S_9,FT10,4,17.314664400974785,431.0,4.877124679758756
S_9,FC6,4,9.426271819551529,48.0,2.4338957168730815
S_9,FC2,4,7.529518103635914,49.0,-0.16836616929293843
S_9,F4,4,12.248884566748163,50.0,4.6144317725405175
S_9,F8,4,22.97856398597334,508.0,6.92065759848406
S_9,Fp2,4,33.0588453598459,502.0,6.179699472391379
S_10,Fp1,4,-24.43315500805321,320.0,-8.388460319419725
S_10,F3,4,-15.569574319865607,323.0,-5.958901330470207
S_10,F7,4,-21.800128955095925,456.0,-7.917108878063767
S_10,FT9,4,-16.10337304041124,489.0,-5.882032436894031
S_10,FC5,4,-13.087498182331903,320.0,-5.003934026801337
S_10,FC1,4,-5.485200666189875,246.0,-1.9405801392064141
S_10,C3,4,-8.214207804042367,528.0,-2.391165540788038
S_10,T7,4,-11.063490959235878,483.0,-2.657515749249391
S_10,TP9,4,-10.999933234694035,547.0,0.2528422664448771
S_10,CP5,4,-7.981859498287087,70.0,-2.2661810385897296
S_10,CP1,4,5.320391451588947,188.0,0.26021319642416896
S_10,Pz,4,-6.8773759125845055,126.0,-0.48361643494959283
S_10,P3,4,9.64851294897821,380.0,2.245042803597499
S_10,P7,4,11.868571731054598,137.0,1.1576283078304674
S_10,O1,4,14.937474849968224,109.0,2.253352873266315
S_10,Oz,4,12.179133647775023,313.0,2.2985779124415617
S_10,O2,4,17.245370794976722,242.0,2.0248930611223845
S_10,P4,4,10.67185597818567,317.0,1.5109745782308088
S_10,P8,4,11.301119290118736,316.0,3.096688651737948
S_10,TP10,4,15.974056478849517,149.0,3.5235924001628405
S_10,CP6,4,-9.018049985316628,585.0,2.347326147019891
S_10,CP2,4,-6.901954091694212,592.0,0.44114357437961893
S_10,Cz,4,-5.666018509681548,541.0,-0.9553045163141143
S_10,C4,4,7.809291370833881,328.0,1.585756903473261
S_10,T8,4,9.239406344750485,185.0,1.6758245576921864
S_10,FT10,4,17.707931553309823,439.0,5.395357539462877
S_10,FC6,4,12.58797517690301,489.0,2.384984134383287
S_10,FC2,4,6.687349182535677,499.0,0.7585660544832378
S_10,F4,4,13.699201430304562,505.0,2.7191603019767068
S_10,F8,4,22.958805549846034,509.0,7.273557208092347
S_10,Fp2,4,31.77553813379187,562.0,0.6393179385240613
S_11,Fp1,4,29.155348064466878,558.0,-1.6174004938002375
S_11,F3,4,-11.666955427032066,376.0,-1.530312201528607
S_11,F7,4,-17.739454402510628,369.0,-4.482567822660137
S_11,FT9,4,-13.198931834815628,489.0,-4.58543707838541
S_11,FC5,4,-9.920453330837827,334.0,-2.1144944725951653
S_11,FC1,4,-8.54029266705087,382.0,-1.2033851084055753
S_11,C3,4,-6.83990504152436,335.0,-1.661185213348367
S_11,T7,4,-9.121665227605625,336.0,-2.3020418776265483
S_11,TP9,4,-11.044661652344368,521.0,-2.5523990901447986
S_11,CP5,4,-12.787459051303289,532.0,-1.836309526408546
S_11,CP1,4,-6.663099901368403,572.0,-0.37402584936441335
S_11,Pz,4,-9.529517011620277,566.0,-0.5046839034640607
S_11,P3,4,10.639333108089337,375.0,0.715442179746141
S_11,P7,4,-9.189946493175688,525.0,-1.2706362065012435
S_11,O1,4,15.964343664389194,382.0,2.0383123675981643
S_11,Oz,4,15.52858118573277,387.0,2.0512254710348374
S_11,O2,4,16.719590255999446,389.0,2.0700212639226745
S_11,P4,4,8.466160353923367,332.0,0.48569276383302573
S_11,P8,4,-10.533813927502672,554.0,1.4391195602761009
S_11,TP10,4,10.002402563241084,333.0,1.267045371634511
S_11,CP6,4,7.540606231924909,51.0,0.8640058162882756
S_11,CP2,4,-7.322562121446741,127.0,-0.7768260770398581
S_11,Cz,4,-6.000036686716866,384.0,-0.8181490004011622
S_11,C4,4,7.457850435295655,83.0,1.5040070581607368
S_11,T8,4,-10.425161448895695,605.0,1.156271712719859
S_11,FT10,4,12.268556493493074,287.0,2.009807911401479
S_11,FC6,4,8.982671537233548,203.0,1.9740423915870915
S_11,FC2,4,-5.491408901530401,385.0,0.42338416224161673
S_11,F4,4,14.333943013462477,567.0,3.1004851099915367
S_11,F8,4,18.50218835042233,532.0,3.9549825932323923
S_11,Fp2,4,41.574027167583886,541.0,2.5760081880056918
S_12,Fp1,3,-13.026024486237604,464.0,-0.995269440504654
S_12,F3,3,-12.74137539915298,410.0,-3.7515346847679947
S_12,F7,3,-15.217613106780119,432.0,-3.3980714481024936
S_12,FT9,3,-11.655841584613425,469.0,-1.2274786581527206
S_12,FC5,3,-10.57873928284925,410.0,-2.9571057845435336
S_12,FC1,3,-10.27963212790695,306.0,-3.4046923182771125
S_12,C3,3,-10.104997925326407,302.0,-2.772867883779632
S_12,T7,3,-10.387023024337704,254.0,-0.771638014725302
S_12,TP9,3,10.390593822589878,112.0,2.065744326870676
S_12,CP5,3,-6.145159616970916,260.0,-1.8317735329567923
S_12,CP1,3,-8.261273994308201,315.0,-2.2179940798046744
S_12,Pz,3,-7.543992627686823,76.0,-1.9680649955985172
S_12,P3,3,-10.180051377013191,58.0,-2.5461083575298598
S_12,P7,3,-6.644461724083893,486.0,0.7560112504383318
S_12,O1,3,12.90578069207773,134.0,1.5302468811478327
S_12,Oz,3,11.036917030138593,130.0,1.0435045431037477
S_12,O2,3,12.586154441743803,300.0,0.7239444175770311
S_12,P4,3,-4.99751137146065,111.0,-0.14575435898318428
S_12,P8,3,10.493488838459482,151.0,1.8981739357020002
S_12,TP10,3,12.907907223555846,455.0,3.0902922382545595
S_12,CP6,3,9.146552821541176,492.0,1.1936776808289318
S_12,CP2,3,-9.148960768129903,108.0,-1.7848216410782183
S_12,Cz,3,-10.433951879500347,107.0,-3.5765386557753445
S_12,C4,3,-8.315541373390682,748.0,-0.25682281772471405
S_12,T8,3,15.79129020816772,484.0,1.9962016502822983
S_12,FT10,3,17.11347502960893,491.0,4.845452645615062
S_12,FC6,3,15.126634597023852,485.0,3.708093692704872
S_12,FC2,3,-6.779481747844509,406.0,-1.548391370677243
S_12,F4,3,10.016743271894583,381.0,1.2386176390636294
S_12,F8,3,24.304703624148644,484.0,6.359388205425239
S_12,Fp2,3,16.06438060109932,361.0,4.705578935967784
S_13,Fp1,3,25.463846159433427,513.0,1.2527232668856771
S_13,F3,3,7.759382969467861,509.0,1.4299413274735597
S_13,F7,3,12.2461964666488,507.0,0.9859983888972971
S_13,FT9,3,6.749068391187385,11.0,1.5196521966340688
S_13,FC5,3,6.25190440059226,10.0,1.2528902004930662
S_13,FC1,3,7.5814986237027675,188.0,1.1839687108244366
S_13,C3,3,5.3122272161674156,194.0,1.2589773218481994
S_13,T7,3,7.463088883519421,199.0,1.3796929455133722
S_13,TP9,3,-9.98285475343404,532.0,0.19045316957192487
S_13,CP5,3,-6.879206591221903,528.0,-0.08207197370411326
S_13,CP1,3,8.304112423765416,185.0,1.3772837686071135
S_13,Pz,3,-6.752911957334761,486.0,0.21094731388947696
S_13,P3,3,9.578649377028045,274.0,-0.9342868532795963
S_13,P7,3,6.865421216953172,372.0,1.1143861760204963
S_13,O1,3,13.086028256113671,371.0,1.9159665707553564
S_13,Oz,3,11.859607756078551,126.0,1.2504651306999077
S_13,O2,3,11.811966521552002,401.0,1.1388212558270232
S_13,P4,3,5.901994428531374,335.0,1.0367392149670032
S_13,P8,3,6.7653227999968255,309.0,0.03601822894709332
S_13,TP10,3,-12.389246428870758,485.0,-0.9790681189010366
S_13,CP6,3,-7.569725873868193,390.0,-0.34531164189121527
S_13,CP2,3,4.876919611883632,643.0,-0.14415562953154254
S_13,Cz,3,7.996550652838957,188.0,0.5213175181541749
S_13,C4,3,-7.71306435575066,127.0,-0.43879258051369263
S_13,T8,3,-9.18583071323809,425.0,-1.6268501765150376
S_13,FT10,3,-11.562407532676703,190.0,-3.7341108397319904
S_13,FC6,3,-9.226071479099527,357.0,-2.480671224185888
S_13,FC2,3,-4.53883611744198,548.0,0.018334806355165552
S_13,F4,3,-9.475164397841482,264.0,-1.6093921163324474
S_13,F8,3,-13.489621811606204,266.0,-4.860844813567865
S_13,Fp2,3,22.752444117355886,493.0,-1.8390215442099835
S_14,Fp1,4,18.21185622095879,424.0,8.166771565334644
S_14,F3,4,10.516875998905547,421.0,1.3193332673899354
S_14,F7,4,12.80045449019898,452.0,3.929188787875548
S_14,FT9,4,8.074499275372986,168.0,1.1880526826696511
S_14,FC5,4,-7.450588661184944,673.0,0.6874594518522398
S_14,FC1,4,-7.255238032726974,264.0,-0.9977359889959614
S_14,C3,4,6.004512367908641,196.0,0.6640677965622993
S_14,T7,4,9.357458020714866,526.0,0.1937480635183374
S_14,TP9,4,8.430545835467854,129.0,0.24061554905075885
S_14,CP5,4,7.301639934716413,528.0,0.8524839312265586
S_14,CP1,4,-6.7496374684732485,437.0,-1.8268546576817046
S_14,Pz,4,5.84920656291465,678.0,-1.0320605865348378
S_14,P3,4,6.311585385059671,312.0,0.7013054993084192
S_14,P7,4,9.815257395286906,128.0,1.0100889287498123
S_14,O1,4,9.997926515338913,298.0,1.7196971562072034
S_14,Oz,4,8.893096493737776,670.0,1.4386784727617616
S_14,O2,4,13.700435946079894,670.0,1.9078535210934977
S_14,P4,4,6.89929243556951,676.0,-0.9886907542258001
S_14,P8,4,-7.931875855337392,528.0,-0.09984276159633516
S_14,TP10,4,-11.06705305886891,200.0,-1.5153649841933854
S_14,CP6,4,-7.907271166572894,161.0,-2.112673015806819
S_14,CP2,4,-6.150920593740651,135.0,-1.5023888326211723
S_14,Cz,4,-9.074146920613389,386.0,-1.7424492722563818
S_14,C4,4,-6.772931393358866,309.0,-1.5525973881175106
S_14,T8,4,-10.812286677558921,374.0,-2.9807539056732604
S_14,FT10,4,-12.49555917290472,158.0,-3.5542551233626063
S_14,FC6,4,-9.662272796508903,163.0,-2.8532848756702376
S_14,FC2,4,-7.814467428868149,385.0,-1.4395426422710733
S_14,F4,4,-7.99396335184562,800.0,-1.4347980077735782
S_14,F8,4,-13.893101752795296,157.0,-3.4641254491128093
S_14,Fp2,4,15.073877045457072,425.0,5.07807357229281
S_15,Fp1,3,27.326525706471898,555.0,2.366622134867198
S_15,F3,3,8.968615124766458,561.0,-0.7327598718853997
S_15,F7,3,14.858784827745477,554.0,3.978265079600125
S_15,FT9,3,-10.213555131610315,646.0,2.7895848530215255
S_15,FC5,3,-6.017161124149194,646.0,0.043344182658268324
S_15,FC1,3,-7.127397910184507,670.0,0.05684130536178068
S_15,C3,3,-5.362609473042982,672.0,0.44816936255336337
S_15,T7,3,9.784502233107155,775.0,1.0959646402533
S_15,TP9,3,9.665478261208374,736.0,0.4960874351728283
S_15,CP5,3,9.515999924632814,143.0,1.8147828465939353
S_15,CP1,3,7.341519501142441,168.0,0.9809422006647379
S_15,Pz,3,7.952216313961158,317.0,-0.06339244296238346
S_15,P3,3,9.794742602824234,338.0,2.4674823585481955
S_15,P7,3,10.716790272854762,124.0,1.4600350278876741
S_15,O1,3,14.277083085418134,264.0,2.13398908169591
S_15,Oz,3,13.64814747246993,264.0,1.5684990672280579
S_15,O2,3,-12.183177714471842,573.0,-0.2612861985076731
S_15,P4,3,7.760274119102892,309.0,1.2042532974465125
S_15,P8,3,-9.383238973143998,565.0,0.1864145558589807
S_15,TP10,3,-13.39164100381079,166.0,-1.4413763304835339
S_15,CP6,3,5.431583826273093,700.0,-0.09121240745715438
S_15,CP2,3,-5.738601441854557,99.0,-0.7649232686183401
S_15,Cz,3,-6.497690460161473,102.0,-0.5749451131416896
S_15,C4,3,-7.570522385821633,104.0,-1.8674576816487143
S_15,T8,3,-12.520277758893194,563.0,-1.555727651079158
S_15,FT10,3,-13.161287222404663,146.0,-4.45471770552743
S_15,FC6,3,-10.116001456080069,146.0,-2.63977054129743
S_15,FC2,3,-7.303364412032864,105.0,-1.3022737184984088
S_15,F4,3,-12.203586681880456,153.0,-2.5629369110606897
S_15,F8,3,-14.137722387777146,171.0,-4.166955342518665
S_15,Fp2,3,28.284244302748867,567.0,-0.6115422447257175
